75ECSV 	
// AQ6375E OPTICAL SPECTRUM ANALYZER //
40
"CTRWL",1750.000000
"SPAN",1500.000000
"START WL",1000.000000
"STOP WL",2500.000000
"WLFREQ", 0
"REFL",-17.1
"LSCL",10.0
"RESLN",1.000
"CUSTOM RES",0
"AVG",   5
"SMPLAUTO",      0
"SMPL",       7501
"SMPLINTVL",0.2000
"MID"
"SENS LEVEL",-71.0
"MEAS"
"LSUNT",1
"NMSKH","OFF"
"RESCOR",0
"SMOOTH",0
"MEASWL",1
"MODELNAME",AQ6375E
"NEBWCAL0",    0
"NEBWCAL1",    0
"NEBWCALWL",   0
"RESCAL0_0",   9945
"RESCAL0_1",      0
"RESCAL0_2",      0
"RESCAL1_0",   9945
"RESCAL1_1",      0
"RESCAL1_2",      0









"[TRACE DATA]"
1000.0000, -54.333
1000.2000, -54.004
1000.4000, -54.341
1000.6000, -54.126
1000.8000, -53.880
1001.0000, -54.155
1001.2000, -54.257
1001.4000, -54.161
1001.6000, -54.264
1001.8000, -54.227
1002.0000, -53.927
1002.2000, -54.295
1002.4000, -54.350
1002.6000, -54.108
1002.8000, -53.989
1003.0000, -54.142
1003.2000, -54.299
1003.4000, -54.292
1003.6000, -54.056
1003.8000, -54.462
1004.0000, -54.182
1004.2000, -54.488
1004.4000, -54.421
1004.6000, -54.188
1004.8000, -54.305
1005.0000, -54.278
1005.2000, -54.333
1005.4000, -54.355
1005.6000, -54.392
1005.8000, -54.225
1006.0000, -54.426
1006.2000, -54.197
1006.4000, -54.247
1006.6000, -54.171
1006.8000, -54.077
1007.0000, -54.349
1007.2000, -53.988
1007.4000, -54.212
1007.6000, -54.035
1007.8000, -54.107
1008.0000, -54.265
1008.2000, -54.304
1008.4000, -54.423
1008.6000, -54.367
1008.8000, -54.429
1009.0000, -54.490
1009.2000, -54.531
1009.4000, -54.598
1009.6000, -54.535
1009.8000, -54.263
1010.0000, -54.247
1010.2000, -54.479
1010.4000, -54.325
1010.6000, -54.449
1010.8000, -54.445
1011.0000, -54.626
1011.2000, -54.488
1011.4000, -54.499
1011.6000, -54.347
1011.8000, -54.391
1012.0000, -54.521
1012.2000, -54.396
1012.4000, -54.572
1012.6000, -54.331
1012.8000, -54.469
1013.0000, -54.375
1013.2000, -54.590
1013.4000, -54.492
1013.6000, -54.775
1013.8000, -54.665
1014.0000, -54.807
1014.2000, -54.550
1014.4000, -54.537
1014.6000, -54.529
1014.8000, -54.533
1015.0000, -54.644
1015.2000, -54.541
1015.4000, -54.559
1015.6000, -54.720
1015.8000, -54.713
1016.0000, -54.733
1016.2000, -54.495
1016.4000, -54.429
1016.6000, -54.420
1016.8000, -54.464
1017.0000, -54.376
1017.2000, -54.566
1017.4000, -54.314
1017.6000, -54.734
1017.8000, -54.615
1018.0000, -54.573
1018.2000, -54.631
1018.4000, -54.505
1018.6000, -54.433
1018.8000, -54.515
1019.0000, -54.560
1019.2000, -54.528
1019.4000, -54.487
1019.6000, -54.643
1019.8000, -54.622
1020.0000, -54.476
1020.2000, -54.574
1020.4000, -54.723
1020.6000, -54.553
1020.8000, -54.587
1021.0000, -54.654
1021.2000, -54.583
1021.4000, -54.546
1021.6000, -54.692
1021.8000, -54.570
1022.0000, -54.855
1022.2000, -54.973
1022.4000, -54.764
1022.6000, -54.836
1022.8000, -54.726
1023.0000, -54.747
1023.2000, -54.955
1023.4000, -54.580
1023.6000, -54.865
1023.8000, -54.543
1024.0000, -55.012
1024.2000, -54.737
1024.4000, -54.561
1024.6000, -54.880
1024.8000, -54.848
1025.0000, -54.707
1025.2000, -54.858
1025.4000, -54.777
1025.6000, -54.755
1025.8000, -54.997
1026.0000, -54.853
1026.2000, -54.756
1026.4000, -54.802
1026.6000, -54.778
1026.8000, -54.611
1027.0000, -54.860
1027.2000, -54.724
1027.4000, -54.788
1027.6000, -54.828
1027.8000, -54.848
1028.0000, -54.668
1028.2000, -55.040
1028.4000, -54.788
1028.6000, -54.927
1028.8000, -54.905
1029.0000, -54.814
1029.2000, -54.882
1029.4000, -54.895
1029.6000, -54.995
1029.8000, -54.814
1030.0000, -54.842
1030.2000, -55.016
1030.4000, -54.924
1030.6000, -54.791
1030.8000, -54.730
1031.0000, -54.724
1031.2000, -54.967
1031.4000, -54.869
1031.6000, -55.004
1031.8000, -55.091
1032.0000, -54.926
1032.2000, -54.770
1032.4000, -55.042
1032.6000, -54.886
1032.8000, -55.120
1033.0000, -54.825
1033.2000, -55.019
1033.4000, -55.008
1033.6000, -54.946
1033.8000, -54.770
1034.0000, -55.227
1034.2000, -54.909
1034.4000, -55.047
1034.6000, -54.907
1034.8000, -55.101
1035.0000, -55.001
1035.2000, -55.130
1035.4000, -55.011
1035.6000, -55.092
1035.8000, -55.051
1036.0000, -55.168
1036.2000, -54.952
1036.4000, -55.190
1036.6000, -55.034
1036.8000, -55.233
1037.0000, -55.163
1037.2000, -55.129
1037.4000, -55.116
1037.6000, -55.335
1037.8000, -55.209
1038.0000, -55.169
1038.2000, -55.019
1038.4000, -55.301
1038.6000, -55.085
1038.8000, -55.221
1039.0000, -55.367
1039.2000, -55.260
1039.4000, -55.217
1039.6000, -55.300
1039.8000, -55.261
1040.0000, -55.074
1040.2000, -55.398
1040.4000, -55.104
1040.6000, -55.433
1040.8000, -55.165
1041.0000, -55.306
1041.2000, -55.317
1041.4000, -55.343
1041.6000, -55.329
1041.8000, -55.386
1042.0000, -55.356
1042.2000, -55.417
1042.4000, -55.360
1042.6000, -55.242
1042.8000, -55.430
1043.0000, -55.513
1043.2000, -55.552
1043.4000, -55.536
1043.6000, -55.522
1043.8000, -55.242
1044.0000, -55.272
1044.2000, -55.290
1044.4000, -55.184
1044.6000, -55.340
1044.8000, -55.501
1045.0000, -55.311
1045.2000, -55.315
1045.4000, -55.471
1045.6000, -55.376
1045.8000, -55.259
1046.0000, -55.360
1046.2000, -55.444
1046.4000, -55.302
1046.6000, -55.179
1046.8000, -55.343
1047.0000, -55.258
1047.2000, -55.494
1047.4000, -55.470
1047.6000, -55.372
1047.8000, -55.290
1048.0000, -55.368
1048.2000, -55.256
1048.4000, -55.576
1048.6000, -55.427
1048.8000, -55.700
1049.0000, -55.586
1049.2000, -55.143
1049.4000, -55.434
1049.6000, -55.477
1049.8000, -55.329
1050.0000, -55.426
1050.2000, -55.410
1050.4000, -55.303
1050.6000, -55.401
1050.8000, -55.436
1051.0000, -55.774
1051.2000, -55.429
1051.4000, -55.331
1051.6000, -55.543
1051.8000, -55.308
1052.0000, -55.215
1052.2000, -55.584
1052.4000, -55.459
1052.6000, -55.483
1052.8000, -55.448
1053.0000, -55.749
1053.2000, -55.645
1053.4000, -55.538
1053.6000, -55.722
1053.8000, -55.562
1054.0000, -55.468
1054.2000, -55.622
1054.4000, -55.462
1054.6000, -55.630
1054.8000, -55.791
1055.0000, -55.395
1055.2000, -55.669
1055.4000, -55.462
1055.6000, -55.513
1055.8000, -55.635
1056.0000, -55.290
1056.2000, -55.576
1056.4000, -55.622
1056.6000, -55.468
1056.8000, -55.520
1057.0000, -55.530
1057.2000, -55.576
1057.4000, -55.573
1057.6000, -55.498
1057.8000, -55.492
1058.0000, -55.514
1058.2000, -55.631
1058.4000, -55.746
1058.6000, -55.672
1058.8000, -55.438
1059.0000, -55.644
1059.2000, -55.628
1059.4000, -55.370
1059.6000, -55.564
1059.8000, -55.740
1060.0000, -55.500
1060.2000, -55.428
1060.4000, -55.570
1060.6000, -55.722
1060.8000, -55.553
1061.0000, -55.461
1061.2000, -55.673
1061.4000, -55.559
1061.6000, -55.458
1061.8000, -55.490
1062.0000, -55.751
1062.2000, -55.511
1062.4000, -55.352
1062.6000, -55.845
1062.8000, -55.523
1063.0000, -55.557
1063.2000, -55.267
1063.4000, -55.608
1063.6000, -55.599
1063.8000, -55.560
1064.0000, -55.630
1064.2000, -55.608
1064.4000, -55.579
1064.6000, -55.531
1064.8000, -55.731
1065.0000, -55.765
1065.2000, -55.700
1065.4000, -55.405
1065.6000, -55.799
1065.8000, -55.672
1066.0000, -55.770
1066.2000, -55.918
1066.4000, -55.482
1066.6000, -55.473
1066.8000, -55.567
1067.0000, -55.694
1067.2000, -55.772
1067.4000, -55.930
1067.6000, -55.581
1067.8000, -55.649
1068.0000, -55.526
1068.2000, -55.561
1068.4000, -55.974
1068.6000, -55.533
1068.8000, -55.816
1069.0000, -55.915
1069.2000, -55.609
1069.4000, -55.851
1069.6000, -55.812
1069.8000, -55.698
1070.0000, -56.024
1070.2000, -55.583
1070.4000, -55.696
1070.6000, -55.756
1070.8000, -55.703
1071.0000, -55.849
1071.2000, -55.899
1071.4000, -55.702
1071.6000, -55.752
1071.8000, -55.629
1072.0000, -55.690
1072.2000, -55.706
1072.4000, -55.564
1072.6000, -55.846
1072.8000, -55.670
1073.0000, -55.796
1073.2000, -55.809
1073.4000, -55.700
1073.6000, -55.879
1073.8000, -55.621
1074.0000, -55.756
1074.2000, -55.859
1074.4000, -55.883
1074.6000, -55.827
1074.8000, -55.732
1075.0000, -55.603
1075.2000, -55.688
1075.4000, -55.755
1075.6000, -55.797
1075.8000, -55.723
1076.0000, -55.901
1076.2000, -55.960
1076.4000, -55.839
1076.6000, -55.741
1076.8000, -55.705
1077.0000, -55.865
1077.2000, -55.882
1077.4000, -55.707
1077.6000, -55.890
1077.8000, -55.819
1078.0000, -55.993
1078.2000, -55.888
1078.4000, -55.809
1078.6000, -55.825
1078.8000, -55.934
1079.0000, -55.766
1079.2000, -55.916
1079.4000, -55.840
1079.6000, -55.854
1079.8000, -55.911
1080.0000, -55.865
1080.2000, -55.960
1080.4000, -55.795
1080.6000, -55.652
1080.8000, -55.956
1081.0000, -55.994
1081.2000, -55.653
1081.4000, -55.926
1081.6000, -55.818
1081.8000, -55.875
1082.0000, -55.969
1082.2000, -55.823
1082.4000, -55.806
1082.6000, -55.903
1082.8000, -55.922
1083.0000, -55.859
1083.2000, -55.965
1083.4000, -56.014
1083.6000, -55.753
1083.8000, -55.914
1084.0000, -55.856
1084.2000, -55.811
1084.4000, -55.749
1084.6000, -56.010
1084.8000, -55.970
1085.0000, -56.150
1085.2000, -55.788
1085.4000, -55.859
1085.6000, -56.061
1085.8000, -55.913
1086.0000, -55.943
1086.2000, -55.798
1086.4000, -55.756
1086.6000, -55.912
1086.8000, -55.963
1087.0000, -56.142
1087.2000, -55.891
1087.4000, -56.084
1087.6000, -55.881
1087.8000, -55.874
1088.0000, -55.959
1088.2000, -56.032
1088.4000, -55.968
1088.6000, -56.004
1088.8000, -55.993
1089.0000, -55.948
1089.2000, -56.066
1089.4000, -56.069
1089.6000, -56.048
1089.8000, -56.177
1090.0000, -56.093
1090.2000, -56.002
1090.4000, -55.997
1090.6000, -55.940
1090.8000, -56.023
1091.0000, -56.079
1091.2000, -56.049
1091.4000, -56.211
1091.6000, -56.146
1091.8000, -55.830
1092.0000, -55.911
1092.2000, -55.853
1092.4000, -56.108
1092.6000, -56.040
1092.8000, -55.980
1093.0000, -56.048
1093.2000, -55.963
1093.4000, -56.192
1093.6000, -55.908
1093.8000, -56.023
1094.0000, -56.024
1094.2000, -56.109
1094.4000, -56.082
1094.6000, -56.226
1094.8000, -56.256
1095.0000, -56.211
1095.2000, -55.821
1095.4000, -55.941
1095.6000, -56.126
1095.8000, -56.044
1096.0000, -56.077
1096.2000, -55.958
1096.4000, -56.161
1096.6000, -56.095
1096.8000, -56.099
1097.0000, -56.073
1097.2000, -56.025
1097.4000, -55.855
1097.6000, -56.276
1097.8000, -55.934
1098.0000, -55.955
1098.2000, -56.068
1098.4000, -56.235
1098.6000, -55.936
1098.8000, -56.215
1099.0000, -56.209
1099.2000, -56.252
1099.4000, -56.237
1099.6000, -56.079
1099.8000, -56.319
1100.0000, -56.220
1100.2000, -56.039
1100.4000, -55.940
1100.6000, -56.066
1100.8000, -56.161
1101.0000, -56.148
1101.2000, -56.052
1101.4000, -56.155
1101.6000, -56.189
1101.8000, -56.089
1102.0000, -56.117
1102.2000, -56.233
1102.4000, -56.175
1102.6000, -56.190
1102.8000, -56.107
1103.0000, -56.426
1103.2000, -56.208
1103.4000, -56.175
1103.6000, -56.018
1103.8000, -56.396
1104.0000, -55.954
1104.2000, -56.156
1104.4000, -56.009
1104.6000, -56.180
1104.8000, -56.121
1105.0000, -56.088
1105.2000, -56.452
1105.4000, -56.201
1105.6000, -56.115
1105.8000, -56.055
1106.0000, -56.282
1106.2000, -56.242
1106.4000, -56.424
1106.6000, -56.264
1106.8000, -56.090
1107.0000, -56.123
1107.2000, -56.134
1107.4000, -56.276
1107.6000, -56.077
1107.8000, -56.131
1108.0000, -56.296
1108.2000, -56.285
1108.4000, -56.182
1108.6000, -56.253
1108.8000, -56.130
1109.0000, -56.336
1109.2000, -56.335
1109.4000, -56.286
1109.6000, -56.222
1109.8000, -56.233
1110.0000, -56.376
1110.2000, -56.343
1110.4000, -56.185
1110.6000, -56.204
1110.8000, -56.299
1111.0000, -56.315
1111.2000, -56.327
1111.4000, -56.100
1111.6000, -56.217
1111.8000, -56.287
1112.0000, -56.453
1112.2000, -56.123
1112.4000, -56.456
1112.6000, -56.506
1112.8000, -56.396
1113.0000, -56.160
1113.2000, -56.413
1113.4000, -56.412
1113.6000, -56.279
1113.8000, -56.319
1114.0000, -56.277
1114.2000, -56.292
1114.4000, -56.434
1114.6000, -56.267
1114.8000, -56.321
1115.0000, -56.325
1115.2000, -56.115
1115.4000, -56.550
1115.6000, -56.466
1115.8000, -56.360
1116.0000, -56.347
1116.2000, -56.415
1116.4000, -56.433
1116.6000, -56.391
1116.8000, -56.200
1117.0000, -56.421
1117.2000, -56.574
1117.4000, -56.456
1117.6000, -56.481
1117.8000, -56.355
1118.0000, -56.546
1118.2000, -56.318
1118.4000, -56.501
1118.6000, -56.368
1118.8000, -56.555
1119.0000, -56.242
1119.2000, -56.500
1119.4000, -56.326
1119.6000, -56.362
1119.8000, -56.699
1120.0000, -56.528
1120.2000, -56.470
1120.4000, -56.298
1120.6000, -56.532
1120.8000, -56.523
1121.0000, -56.496
1121.2000, -56.397
1121.4000, -56.286
1121.6000, -56.601
1121.8000, -56.586
1122.0000, -56.596
1122.2000, -56.626
1122.4000, -56.532
1122.6000, -56.645
1122.8000, -56.470
1123.0000, -56.429
1123.2000, -56.650
1123.4000, -56.488
1123.6000, -56.346
1123.8000, -56.520
1124.0000, -56.509
1124.2000, -56.304
1124.4000, -56.539
1124.6000, -56.661
1124.8000, -56.366
1125.0000, -56.451
1125.2000, -56.644
1125.4000, -56.477
1125.6000, -56.783
1125.8000, -56.567
1126.0000, -56.680
1126.2000, -56.652
1126.4000, -56.533
1126.6000, -56.639
1126.8000, -56.754
1127.0000, -56.567
1127.2000, -56.759
1127.4000, -56.690
1127.6000, -56.705
1127.8000, -56.723
1128.0000, -56.562
1128.2000, -56.913
1128.4000, -57.017
1128.6000, -56.732
1128.8000, -56.848
1129.0000, -56.699
1129.2000, -56.851
1129.4000, -56.754
1129.6000, -56.554
1129.8000, -56.768
1130.0000, -56.905
1130.2000, -56.963
1130.4000, -56.801
1130.6000, -56.941
1130.8000, -56.863
1131.0000, -56.885
1131.2000, -56.730
1131.4000, -56.908
1131.6000, -56.831
1131.8000, -56.854
1132.0000, -57.093
1132.2000, -56.924
1132.4000, -56.791
1132.6000, -57.076
1132.8000, -56.934
1133.0000, -57.023
1133.2000, -57.044
1133.4000, -56.816
1133.6000, -57.083
1133.8000, -57.137
1134.0000, -56.973
1134.2000, -57.152
1134.4000, -57.163
1134.6000, -56.720
1134.8000, -57.037
1135.0000, -56.950
1135.2000, -57.198
1135.4000, -56.912
1135.6000, -57.233
1135.8000, -57.081
1136.0000, -57.019
1136.2000, -57.505
1136.4000, -57.089
1136.6000, -57.400
1136.8000, -57.152
1137.0000, -57.301
1137.2000, -57.233
1137.4000, -57.144
1137.6000, -57.153
1137.8000, -57.250
1138.0000, -57.072
1138.2000, -57.341
1138.4000, -57.176
1138.6000, -57.075
1138.8000, -57.206
1139.0000, -57.171
1139.2000, -57.294
1139.4000, -57.314
1139.6000, -57.327
1139.8000, -57.300
1140.0000, -57.334
1140.2000, -57.353
1140.4000, -57.265
1140.6000, -57.344
1140.8000, -57.440
1141.0000, -57.344
1141.2000, -57.273
1141.4000, -57.396
1141.6000, -57.358
1141.8000, -57.514
1142.0000, -57.242
1142.2000, -57.253
1142.4000, -57.134
1142.6000, -57.310
1142.8000, -57.400
1143.0000, -57.302
1143.2000, -57.488
1143.4000, -57.292
1143.6000, -57.477
1143.8000, -57.507
1144.0000, -57.421
1144.2000, -57.581
1144.4000, -57.386
1144.6000, -57.066
1144.8000, -57.515
1145.0000, -57.521
1145.2000, -57.435
1145.4000, -57.232
1145.6000, -57.415
1145.8000, -57.483
1146.0000, -57.320
1146.2000, -57.618
1146.4000, -57.551
1146.6000, -57.542
1146.8000, -57.632
1147.0000, -57.461
1147.2000, -57.506
1147.4000, -57.099
1147.6000, -57.427
1147.8000, -57.411
1148.0000, -57.495
1148.2000, -57.544
1148.4000, -57.290
1148.6000, -57.334
1148.8000, -57.536
1149.0000, -57.887
1149.2000, -57.562
1149.4000, -57.437
1149.6000, -57.637
1149.8000, -57.523
1150.0000, -57.851
1150.2000, -57.610
1150.4000, -57.415
1150.6000, -57.839
1150.8000, -57.638
1151.0000, -57.607
1151.2000, -57.365
1151.4000, -57.458
1151.6000, -57.675
1151.8000, -57.531
1152.0000, -57.879
1152.2000, -57.603
1152.4000, -57.357
1152.6000, -57.661
1152.8000, -57.958
1153.0000, -57.632
1153.2000, -57.441
1153.4000, -57.441
1153.6000, -57.689
1153.8000, -57.561
1154.0000, -57.400
1154.2000, -57.573
1154.4000, -57.803
1154.6000, -57.785
1154.8000, -57.398
1155.0000, -57.525
1155.2000, -57.653
1155.4000, -57.866
1155.6000, -58.040
1155.8000, -57.755
1156.0000, -57.795
1156.2000, -57.751
1156.4000, -57.714
1156.6000, -57.432
1156.8000, -57.587
1157.0000, -57.756
1157.2000, -57.588
1157.4000, -57.922
1157.6000, -57.877
1157.8000, -57.877
1158.0000, -57.834
1158.2000, -57.666
1158.4000, -57.650
1158.6000, -57.841
1158.8000, -57.902
1159.0000, -57.989
1159.2000, -57.564
1159.4000, -57.658
1159.6000, -58.077
1159.8000, -57.612
1160.0000, -57.854
1160.2000, -57.825
1160.4000, -57.703
1160.6000, -57.695
1160.8000, -58.000
1161.0000, -58.027
1161.2000, -57.817
1161.4000, -57.757
1161.6000, -57.920
1161.8000, -57.876
1162.0000, -57.864
1162.2000, -57.964
1162.4000, -57.978
1162.6000, -57.954
1162.8000, -57.891
1163.0000, -57.883
1163.2000, -57.964
1163.4000, -57.948
1163.6000, -57.925
1163.8000, -57.939
1164.0000, -57.864
1164.2000, -57.987
1164.4000, -58.154
1164.6000, -57.996
1164.8000, -57.871
1165.0000, -57.776
1165.2000, -58.080
1165.4000, -58.106
1165.6000, -57.942
1165.8000, -57.898
1166.0000, -58.058
1166.2000, -57.824
1166.4000, -58.086
1166.6000, -57.991
1166.8000, -58.017
1167.0000, -57.926
1167.2000, -57.961
1167.4000, -58.053
1167.6000, -57.832
1167.8000, -58.042
1168.0000, -57.942
1168.2000, -57.811
1168.4000, -58.066
1168.6000, -58.032
1168.8000, -58.000
1169.0000, -57.974
1169.2000, -58.132
1169.4000, -58.046
1169.6000, -58.018
1169.8000, -58.123
1170.0000, -58.284
1170.2000, -58.116
1170.4000, -58.178
1170.6000, -57.936
1170.8000, -58.006
1171.0000, -58.187
1171.2000, -58.162
1171.4000, -58.091
1171.6000, -58.129
1171.8000, -58.214
1172.0000, -58.374
1172.2000, -58.278
1172.4000, -57.997
1172.6000, -58.301
1172.8000, -58.364
1173.0000, -58.201
1173.2000, -58.155
1173.4000, -58.288
1173.6000, -58.363
1173.8000, -58.330
1174.0000, -58.485
1174.2000, -58.330
1174.4000, -58.106
1174.6000, -58.239
1174.8000, -58.129
1175.0000, -58.237
1175.2000, -58.214
1175.4000, -58.420
1175.6000, -58.069
1175.8000, -58.339
1176.0000, -58.317
1176.2000, -58.191
1176.4000, -58.324
1176.6000, -58.230
1176.8000, -58.373
1177.0000, -58.368
1177.2000, -58.171
1177.4000, -58.372
1177.6000, -58.300
1177.8000, -58.483
1178.0000, -58.384
1178.2000, -58.329
1178.4000, -58.295
1178.6000, -58.543
1178.8000, -58.533
1179.0000, -58.252
1179.2000, -58.493
1179.4000, -58.470
1179.6000, -58.403
1179.8000, -58.701
1180.0000, -58.308
1180.2000, -58.384
1180.4000, -58.439
1180.6000, -58.464
1180.8000, -58.586
1181.0000, -58.463
1181.2000, -58.731
1181.4000, -58.390
1181.6000, -58.737
1181.8000, -58.663
1182.0000, -58.613
1182.2000, -58.407
1182.4000, -58.795
1182.6000, -58.700
1182.8000, -58.516
1183.0000, -58.671
1183.2000, -58.509
1183.4000, -58.409
1183.6000, -58.969
1183.8000, -58.721
1184.0000, -58.518
1184.2000, -58.731
1184.4000, -58.767
1184.6000, -58.636
1184.8000, -58.607
1185.0000, -58.633
1185.2000, -58.731
1185.4000, -58.538
1185.6000, -58.727
1185.8000, -58.768
1186.0000, -58.716
1186.2000, -58.793
1186.4000, -58.530
1186.6000, -58.694
1186.8000, -58.661
1187.0000, -58.746
1187.2000, -58.886
1187.4000, -58.725
1187.6000, -58.863
1187.8000, -58.899
1188.0000, -58.906
1188.2000, -58.689
1188.4000, -58.764
1188.6000, -58.884
1188.8000, -58.684
1189.0000, -58.598
1189.2000, -58.583
1189.4000, -58.839
1189.6000, -58.844
1189.8000, -58.923
1190.0000, -58.843
1190.2000, -58.903
1190.4000, -58.621
1190.6000, -58.919
1190.8000, -59.086
1191.0000, -58.662
1191.2000, -58.819
1191.4000, -58.786
1191.6000, -58.826
1191.8000, -59.022
1192.0000, -58.771
1192.2000, -58.903
1192.4000, -58.734
1192.6000, -59.077
1192.8000, -58.996
1193.0000, -58.772
1193.2000, -58.841
1193.4000, -59.095
1193.6000, -58.965
