74CSV  	
// AQ6374 OPTICAL SPECTRUM ANALYZER //                  
35
"CTRWL",1550.000000
"SPAN",  50.500000
"START WL",1524.750000
"STOP WL",1575.250000
"WLFREQ", 0
"REFL",-10.0
"LSCL",10.0
"RESLN",0.050
"AVG",   1
"SMPLAUTO",      1
"SMPL",       5051
"SMPLINTVL",0.0100
"HIGH1"
"MEAS"
"LSUNT",1
"NMSKH","OFF"
"RESCOR",0
"SMOOTH",0
"MEASWL",0
"SWPSPD",1
"MODELNAME","AQ6374"
"CHGPT",          0
"RESCAL0_0",      10102
"RESCAL0_1",       -171
"RESCAL0_2",     264153
"RESCAL1_0",      10290
"RESCAL1_1",          0
"RESCAL1_2",          0
"CORESIZE", 0






"[TRACE DATA]"
1524.7500,-210.000
1524.7600, -66.308
1524.7700, -67.391
1524.7800, -68.652
1524.7900, -67.693
1524.8000, -77.656
1524.8100, -69.055
1524.8200,-210.000
1524.8300, -68.265
1524.8400, -82.129
1524.8500, -72.213
1524.8600,-210.000
1524.8700, -70.966
1524.8800, -74.465
1524.8900, -73.353
1524.9000, -72.308
1524.9100, -69.342
1524.9200, -74.694
1524.9300, -76.545
1524.9400,-210.000
1524.9500,-210.000
1524.9600,-210.000
1524.9700, -74.373
1524.9800,-210.000
1524.9900, -76.565
1525.0000,-210.000
1525.0100, -73.656
1525.0200,-210.000
1525.0300, -69.945
1525.0400,-210.000
1525.0500,-210.000
1525.0600,-210.000
1525.0700,-210.000
1525.0800,-210.000
1525.0900,-210.000
1525.1000,-210.000
1525.1100,-210.000
1525.1200, -81.947
1525.1300, -70.416
1525.1400,-210.000
1525.1500,-210.000
1525.1600,-210.000
1525.1700,-210.000
1525.1800, -68.183
1525.1900,-210.000
1525.2000, -69.689
1525.2100, -69.708
1525.2200, -68.929
1525.2300,-210.000
1525.2400,-210.000
1525.2500, -68.714
1525.2600,-210.000
1525.2700, -66.448
1525.2800,-210.000
1525.2900,-210.000
1525.3000, -79.097
1525.3100, -68.373
1525.3200,-210.000
1525.3300,-210.000
1525.3400, -71.113
1525.3500,-210.000
1525.3600, -65.826
1525.3700, -71.780
1525.3800,-210.000
1525.3900, -69.544
1525.4000,-210.000
1525.4100, -72.080
1525.4200,-210.000
1525.4300, -70.787
1525.4400,-210.000
1525.4500,-210.000
1525.4600, -71.963
1525.4700,-210.000
1525.4800, -73.130
1525.4900, -71.378
1525.5000, -66.172
1525.5100,-210.000
1525.5200,-210.000
1525.5300, -70.364
1525.5400, -68.833
1525.5500,-210.000
1525.5600,-210.000
1525.5700, -66.293
1525.5800, -67.864
1525.5900,-210.000
1525.6000,-210.000
1525.6100,-210.000
1525.6200,-210.000
1525.6300,-210.000
1525.6400, -67.157
1525.6500,-210.000
1525.6600, -68.316
1525.6700, -84.243
1525.6800,-210.000
1525.6900, -81.476
1525.7000, -83.906
1525.7100, -69.182
1525.7200, -70.461
1525.7300, -74.725
1525.7400, -77.085
1525.7500, -77.481
1525.7600,-210.000
1525.7700, -75.182
1525.7800, -70.797
1525.7900,-210.000
1525.8000,-210.000
1525.8100,-210.000
1525.8200, -67.322
1525.8300,-210.000
1525.8400, -73.637
1525.8500, -68.090
1525.8600, -68.278
1525.8700, -73.819
1525.8800, -69.109
1525.8900, -67.809
1525.9000, -70.316
1525.9100,-210.000
1525.9200,-210.000
1525.9300,-210.000
1525.9400, -70.990
1525.9500,-210.000
1525.9600,-210.000
1525.9700, -65.565
1525.9800, -70.547
1525.9900, -73.227
1526.0000,-210.000
1526.0100,-210.000
1526.0200,-210.000
1526.0300,-210.000
1526.0400, -73.969
1526.0500, -65.542
1526.0600,-210.000
1526.0700, -75.266
1526.0800,-210.000
1526.0900,-210.000
1526.1000, -71.312
1526.1100, -78.673
1526.1200, -70.930
1526.1300, -67.486
1526.1400,-210.000
1526.1500, -65.774
1526.1600, -69.317
1526.1700, -72.714
1526.1800, -68.088
1526.1900, -67.408
1526.2000,-210.000
1526.2100,-210.000
1526.2200, -73.135
1526.2300, -70.392
1526.2400,-210.000
1526.2500, -70.118
1526.2600, -68.319
1526.2700, -82.020
1526.2800,-210.000
1526.2900,-210.000
1526.3000, -69.190
1526.3100,-210.000
1526.3200,-210.000
1526.3300,-210.000
1526.3400,-210.000
1526.3500,-210.000
1526.3600, -66.746
1526.3700,-210.000
1526.3800,-210.000
1526.3900, -66.844
1526.4000, -67.031
1526.4100,-210.000
1526.4200,-210.000
1526.4300,-210.000
1526.4400,-210.000
1526.4500,-210.000
1526.4600, -69.281
1526.4700,-210.000
1526.4800, -70.103
1526.4900,-210.000
1526.5000,-210.000
1526.5100,-210.000
1526.5200, -68.413
1526.5300,-210.000
1526.5400,-210.000
1526.5500, -71.426
1526.5600, -68.816
1526.5700,-210.000
1526.5800,-210.000
1526.5900,-210.000
1526.6000,-210.000
1526.6100,-210.000
1526.6200, -70.803
1526.6300,-210.000
1526.6400,-210.000
1526.6500,-210.000
1526.6600, -72.789
1526.6700, -67.873
1526.6800, -72.055
1526.6900, -66.444
1526.7000, -72.744
1526.7100, -67.672
1526.7200,-210.000
1526.7300,-210.000
1526.7400, -66.076
1526.7500, -69.538
1526.7600,-210.000
1526.7700,-210.000
1526.7800, -66.035
1526.7900,-210.000
1526.8000,-210.000
1526.8100, -75.614
1526.8200, -67.824
1526.8300,-210.000
1526.8400,-210.000
1526.8500, -75.608
1526.8600, -67.707
1526.8700,-210.000
1526.8800,-210.000
1526.8900,-210.000
1526.9000,-210.000
1526.9100,-210.000
1526.9200, -74.374
1526.9300,-210.000
1526.9400, -80.721
1526.9500, -83.700
1526.9600,-210.000
1526.9700,-210.000
1526.9800, -71.648
1526.9900, -70.293
1527.0000,-210.000
1527.0100, -80.538
1527.0200, -69.630
1527.0300,-210.000
1527.0400,-210.000
1527.0500, -68.999
1527.0600,-210.000
1527.0700,-210.000
1527.0800,-210.000
1527.0900, -71.839
1527.1000, -70.739
1527.1100,-210.000
1527.1200, -72.826
1527.1300, -67.738
1527.1400, -68.945
1527.1500,-210.000
1527.1600, -65.476
1527.1700, -69.911
1527.1800,-210.000
1527.1900,-210.000
1527.2000, -72.510
1527.2100, -67.404
1527.2200, -72.661
1527.2300, -68.173
1527.2400,-210.000
1527.2500, -66.531
1527.2600,-210.000
1527.2700,-210.000
1527.2800,-210.000
1527.2900,-210.000
1527.3000,-210.000
1527.3100,-210.000
1527.3200, -66.631
1527.3300, -65.500
1527.3400, -79.369
1527.3500, -70.084
1527.3600,-210.000
1527.3700,-210.000
1527.3800,-210.000
1527.3900, -69.684
1527.4000, -67.931
1527.4100, -72.189
1527.4200, -73.400
1527.4300,-210.000
1527.4400,-210.000
1527.4500, -76.801
1527.4600, -70.417
1527.4700,-210.000
1527.4800,-210.000
1527.4900,-210.000
1527.5000,-210.000
1527.5100,-210.000
1527.5200,-210.000
1527.5300,-210.000
1527.5400, -69.522
1527.5500,-210.000
1527.5600,-210.000
1527.5700,-210.000
1527.5800, -72.864
1527.5900, -70.279
1527.6000,-210.000
1527.6100,-210.000
1527.6200,-210.000
1527.6300,-210.000
1527.6400,-210.000
1527.6500, -75.201
1527.6600, -66.136
1527.6700,-210.000
1527.6800, -70.612
1527.6900, -67.639
1527.7000,-210.000
1527.7100,-210.000
1527.7200, -71.518
1527.7300,-210.000
1527.7400,-210.000
1527.7500,-210.000
1527.7600,-210.000
1527.7700,-210.000
1527.7800, -72.564
1527.7900,-210.000
1527.8000,-210.000
1527.8100,-210.000
1527.8200,-210.000
1527.8300,-210.000
1527.8400,-210.000
1527.8500,-210.000
1527.8600,-210.000
1527.8700,-210.000
1527.8800, -66.569
1527.8900, -78.282
1527.9000, -80.119
1527.9100,-210.000
1527.9200,-210.000
1527.9300, -80.927
1527.9400,-210.000
1527.9500,-210.000
1527.9600, -66.338
1527.9700,-210.000
1527.9800,-210.000
1527.9900, -72.952
1528.0000, -78.121
1528.0100, -65.543
1528.0200,-210.000
1528.0300,-210.000
1528.0400, -66.211
1528.0500, -68.419
1528.0600, -75.374
1528.0700,-210.000
1528.0800, -68.423
1528.0900,-210.000
1528.1000, -69.958
1528.1100,-210.000
1528.1200, -69.728
1528.1300, -63.738
1528.1400, -73.569
1528.1500,-210.000
1528.1600, -69.544
1528.1700, -67.223
1528.1800, -71.677
1528.1900, -73.023
1528.2000, -68.642
1528.2100, -69.270
1528.2200, -67.557
1528.2300, -68.387
1528.2400, -69.132
1528.2500, -67.619
1528.2600,-210.000
1528.2700,-210.000
1528.2800,-210.000
1528.2900,-210.000
1528.3000, -71.932
1528.3100, -69.905
1528.3200, -69.306
1528.3300, -70.174
1528.3400, -71.927
1528.3500, -66.006
1528.3600, -68.854
1528.3700,-210.000
1528.3800, -67.445
1528.3900,-210.000
1528.4000, -67.055
1528.4100, -66.713
1528.4200,-210.000
1528.4300,-210.000
1528.4400, -67.212
1528.4500,-210.000
1528.4600,-210.000
1528.4700,-210.000
1528.4800, -70.325
1528.4900, -68.036
1528.5000, -75.938
1528.5100, -66.961
1528.5200,-210.000
1528.5300,-210.000
1528.5400, -69.309
1528.5500,-210.000
1528.5600, -71.538
1528.5700, -78.486
1528.5800,-210.000
1528.5900,-210.000
1528.6000,-210.000
1528.6100, -67.675
1528.6200,-210.000
1528.6300, -78.326
1528.6400, -69.259
1528.6500,-210.000
1528.6600, -71.699
1528.6700, -70.965
1528.6800, -68.490
1528.6900, -67.584
1528.7000, -71.538
1528.7100,-210.000
1528.7200,-210.000
1528.7300, -70.691
1528.7400,-210.000
1528.7500, -69.352
1528.7600,-210.000
1528.7700,-210.000
1528.7800, -70.077
1528.7900, -69.054
1528.8000, -79.682
1528.8100,-210.000
1528.8200,-210.000
1528.8300, -68.295
1528.8400, -75.121
1528.8500, -68.772
1528.8600, -66.436
1528.8700, -69.384
1528.8800, -70.599
1528.8900, -73.776
1528.9000, -71.829
1528.9100, -66.661
1528.9200,-210.000
1528.9300,-210.000
1528.9400,-210.000
1528.9500,-210.000
1528.9600, -68.533
1528.9700,-210.000
1528.9800, -68.722
1528.9900,-210.000
1529.0000,-210.000
1529.0100,-210.000
1529.0200,-210.000
1529.0300, -63.634
1529.0400, -67.684
1529.0500,-210.000
1529.0600,-210.000
1529.0700, -71.024
1529.0800, -75.882
1529.0900, -68.444
1529.1000,-210.000
1529.1100,-210.000
1529.1200,-210.000
1529.1300, -70.282
1529.1400,-210.000
1529.1500, -66.144
1529.1600,-210.000
1529.1700,-210.000
1529.1800, -68.997
1529.1900,-210.000
1529.2000, -69.528
1529.2100,-210.000
1529.2200, -74.905
1529.2300,-210.000
1529.2400, -69.939
1529.2500,-210.000
1529.2600, -76.899
1529.2700,-210.000
1529.2800,-210.000
1529.2900, -71.859
1529.3000, -70.631
1529.3100,-210.000
1529.3200, -66.518
1529.3300,-210.000
1529.3400,-210.000
1529.3500, -71.297
1529.3600,-210.000
1529.3700, -68.171
1529.3800, -73.897
1529.3900,-210.000
1529.4000,-210.000
1529.4100, -70.601
1529.4200, -72.314
1529.4300,-210.000
1529.4400,-210.000
1529.4500, -67.518
1529.4600, -75.654
1529.4700,-210.000
1529.4800, -70.228
1529.4900,-210.000
1529.5000,-210.000
1529.5100, -64.885
1529.5200, -68.713
1529.5300,-210.000
1529.5400, -73.545
1529.5500,-210.000
1529.5600, -75.579
1529.5700, -67.639
1529.5800,-210.000
1529.5900, -67.127
1529.6000,-210.000
1529.6100,-210.000
1529.6200,-210.000
1529.6300, -90.082
1529.6400,-210.000
1529.6500, -69.091
1529.6600,-210.000
1529.6700,-210.000
1529.6800,-210.000
1529.6900,-210.000
1529.7000,-210.000
1529.7100,-210.000
1529.7200,-210.000
1529.7300, -89.246
1529.7400, -65.069
1529.7500,-210.000
1529.7600,-210.000
1529.7700,-210.000
1529.7800, -62.256
1529.7900,-210.000
1529.8000,-210.000
1529.8100,-210.000
1529.8200,-210.000
1529.8300, -73.940
1529.8400, -72.534
1529.8500,-210.000
1529.8600,-210.000
1529.8700, -79.135
1529.8800,-210.000
1529.8900,-210.000
1529.9000, -67.218
1529.9100, -65.179
1529.9200,-210.000
1529.9300,-210.000
1529.9400, -70.425
1529.9500,-210.000
1529.9600, -75.556
1529.9700, -69.784
1529.9800,-210.000
1529.9900, -66.428
1530.0000,-210.000
1530.0100,-210.000
1530.0200, -77.714
1530.0300, -70.492
1530.0400, -70.070
1530.0500,-210.000
1530.0600,-210.000
1530.0700, -66.531
1530.0800,-210.000
1530.0900, -69.261
1530.1000, -71.289
1530.1100, -69.445
1530.1200,-210.000
1530.1300,-210.000
1530.1400,-210.000
1530.1500,-210.000
1530.1600,-210.000
1530.1700,-210.000
1530.1800,-210.000
1530.1900,-210.000
1530.2000, -68.643
1530.2100, -75.327
1530.2200,-210.000
1530.2300, -65.029
1530.2400, -65.261
1530.2500,-210.000
1530.2600,-210.000
1530.2700, -65.922
1530.2800, -71.724
1530.2900,-210.000
1530.3000, -82.484
1530.3100,-210.000
1530.3200,-210.000
1530.3300, -66.635
1530.3400,-210.000
1530.3500, -66.587
1530.3600, -66.101
1530.3700, -67.811
1530.3800,-210.000
1530.3900,-210.000
1530.4000,-210.000
1530.4100, -67.574
1530.4200, -69.913
1530.4300, -73.877
1530.4400,-210.000
1530.4500, -81.545
1530.4600, -69.338
1530.4700, -79.253
1530.4800, -70.571
1530.4900, -74.827
1530.5000,-210.000
1530.5100,-210.000
1530.5200, -74.920
1530.5300, -68.428
1530.5400,-210.000
1530.5500,-210.000
1530.5600,-210.000
1530.5700,-210.000
1530.5800, -71.084
1530.5900,-210.000
1530.6000,-210.000
1530.6100,-210.000
1530.6200,-210.000
1530.6300,-210.000
1530.6400, -71.882
1530.6500,-210.000
1530.6600,-210.000
1530.6700, -74.467
1530.6800, -65.928
1530.6900, -65.078
1530.7000, -68.409
1530.7100, -66.150
1530.7200, -65.099
1530.7300, -70.873
1530.7400, -69.714
1530.7500,-210.000
1530.7600, -78.303
1530.7700,-210.000
1530.7800, -68.218
1530.7900,-210.000
1530.8000, -88.071
1530.8100, -72.902
1530.8200,-210.000
1530.8300,-210.000
1530.8400,-210.000
1530.8500, -75.412
1530.8600, -67.211
1530.8700, -65.702
1530.8800, -65.717
1530.8900, -68.240
1530.9000, -70.773
1530.9100,-210.000
1530.9200,-210.000
1530.9300, -75.111
1530.9400, -66.320
1530.9500, -67.156
1530.9600, -69.941
1530.9700,-210.000
1530.9800,-210.000
1530.9900,-210.000
1531.0000, -68.177
1531.0100, -69.334
1531.0200,-210.000
1531.0300, -69.205
1531.0400,-210.000
1531.0500, -78.548
1531.0600, -67.621
1531.0700,-210.000
1531.0800, -72.799
1531.0900, -65.527
1531.1000,-210.000
1531.1100,-210.000
1531.1200,-210.000
1531.1300,-210.000
1531.1400, -68.034
1531.1500,-210.000
1531.1600, -71.396
1531.1700, -69.505
1531.1800, -69.803
1531.1900, -95.123
1531.2000, -71.082
1531.2100,-210.000
1531.2200,-210.000
1531.2300,-210.000
1531.2400,-210.000
1531.2500,-210.000
1531.2600,-210.000
1531.2700,-210.000
1531.2800,-210.000
1531.2900, -71.968
1531.3000, -71.194
1531.3100, -69.748
1531.3200,-210.000
1531.3300, -76.393
1531.3400, -75.511
1531.3500, -71.836
1531.3600,-210.000
1531.3700, -66.741
1531.3800,-210.000
1531.3900,-210.000
1531.4000,-210.000
1531.4100,-210.000
1531.4200, -70.633
1531.4300, -73.788
1531.4400,-210.000
1531.4500,-210.000
1531.4600,-210.000
1531.4700, -67.679
1531.4800,-210.000
1531.4900, -77.755
1531.5000, -68.909
1531.5100,-210.000
1531.5200,-210.000
1531.5300,-210.000
1531.5400,-210.000
1531.5500, -65.479
1531.5600, -65.548
1531.5700, -68.163
1531.5800, -68.301
1531.5900,-210.000
1531.6000,-210.000
1531.6100, -66.971
1531.6200,-210.000
1531.6300, -65.391
1531.6400, -74.799
1531.6500,-210.000
1531.6600, -76.951
1531.6700,-210.000
1531.6800,-210.000
1531.6900, -68.539
1531.7000,-210.000
1531.7100, -68.525
1531.7200, -64.617
1531.7300, -71.278
1531.7400,-210.000
1531.7500, -68.560
1531.7600, -77.715
1531.7700, -70.740
1531.7800,-210.000
1531.7900, -68.427
1531.8000, -69.210
1531.8100, -70.563
1531.8200,-210.000
1531.8300,-210.000
1531.8400, -69.298
1531.8500, -68.852
1531.8600, -66.450
1531.8700, -79.743
1531.8800,-210.000
1531.8900,-210.000
1531.9000,-210.000
1531.9100, -72.203
1531.9200, -77.979
1531.9300,-210.000
1531.9400,-210.000
1531.9500, -65.723
1531.9600, -67.174
1531.9700, -68.959
1531.9800, -69.171
1531.9900, -69.883
1532.0000, -70.388
1532.0100, -70.101
1532.0200, -69.964
1532.0300,-210.000
1532.0400,-210.000
1532.0500,-210.000
1532.0600, -79.803
1532.0700, -71.375
1532.0800, -81.945
1532.0900,-210.000
1532.1000,-210.000
1532.1100,-210.000
1532.1200,-210.000
1532.1300,-210.000
1532.1400, -67.882
1532.1500, -74.665
1532.1600, -67.068
1532.1700, -66.036
1532.1800,-210.000
1532.1900,-210.000
1532.2000,-210.000
1532.2100, -76.383
1532.2200, -68.326
1532.2300, -73.266
1532.2400,-210.000
1532.2500, -70.584
1532.2600,-210.000
1532.2700,-210.000
1532.2800,-210.000
1532.2900,-210.000
1532.3000,-210.000
1532.3100,-210.000
1532.3200,-210.000
1532.3300, -67.539
1532.3400,-210.000
1532.3500, -70.084
1532.3600, -67.951
1532.3700, -69.183
1532.3800,-210.000
1532.3900, -69.984
1532.4000,-210.000
1532.4100,-210.000
1532.4200,-210.000
1532.4300,-210.000
1532.4400, -67.280
1532.4500,-210.000
1532.4600, -77.785
1532.4700, -70.041
1532.4800,-210.000
1532.4900,-210.000
1532.5000,-210.000
1532.5100,-210.000
1532.5200,-210.000
1532.5300,-210.000
1532.5400, -78.632
1532.5500,-210.000
1532.5600,-210.000
1532.5700, -71.661
1532.5800, -67.841
1532.5900, -66.137
1532.6000, -73.209
1532.6100,-210.000
1532.6200,-210.000
1532.6300,-210.000
1532.6400,-210.000
1532.6500, -71.261
1532.6600, -68.192
1532.6700,-210.000
1532.6800,-210.000
1532.6900, -77.968
1532.7000, -64.745
1532.7100,-210.000
1532.7200,-210.000
1532.7300,-210.000
1532.7400,-210.000
1532.7500, -66.009
1532.7600, -68.551
1532.7700, -68.946
1532.7800, -69.065
1532.7900, -70.101
1532.8000, -67.321
1532.8100, -65.135
1532.8200,-210.000
1532.8300,-210.000
1532.8400, -70.437
1532.8500, -84.506
1532.8600,-210.000
1532.8700,-210.000
1532.8800,-210.000
1532.8900,-210.000
1532.9000,-210.000
1532.9100, -66.369
1532.9200,-210.000
1532.9300,-210.000
1532.9400, -70.733
1532.9500,-210.000
1532.9600,-210.000
1532.9700, -73.149
1532.9800, -68.951
1532.9900,-210.000
1533.0000, -70.321
1533.0100, -68.069
1533.0200,-210.000
1533.0300,-210.000
1533.0400,-210.000
1533.0500,-210.000
1533.0600,-210.000
1533.0700,-210.000
1533.0800,-210.000
1533.0900,-210.000
1533.1000,-210.000
1533.1100,-210.000
1533.1200, -65.352
1533.1300, -72.077
1533.1400,-210.000
1533.1500,-210.000
1533.1600,-210.000
1533.1700,-210.000
1533.1800, -65.761
1533.1900,-210.000
1533.2000, -76.386
1533.2100, -67.465
1533.2200,-210.000
1533.2300, -77.584
1533.2400,-210.000
1533.2500,-210.000
1533.2600, -69.421
1533.2700,-210.000
1533.2800, -67.896
1533.2900, -65.859
1533.3000,-210.000
1533.3100,-210.000
1533.3200,-210.000
1533.3300,-210.000
1533.3400,-210.000
1533.3500,-210.000
1533.3600,-210.000
1533.3700,-210.000
1533.3800, -83.093
1533.3900,-210.000
1533.4000, -71.138
1533.4100, -67.617
1533.4200, -71.619
1533.4300,-210.000
1533.4400, -70.424
1533.4500, -76.368
1533.4600,-210.000
1533.4700,-210.000
1533.4800,-210.000
1533.4900,-210.000
1533.5000, -74.971
1533.5100, -76.839
1533.5200, -70.288
1533.5300,-210.000
1533.5400, -70.298
1533.5500, -72.311
1533.5600, -69.627
1533.5700, -75.739
1533.5800, -67.626
1533.5900, -67.139
1533.6000, -72.142
1533.6100, -71.431
1533.6200, -72.753
1533.6300,-210.000
1533.6400,-210.000
1533.6500, -66.550
1533.6600, -67.639
1533.6700, -66.402
1533.6800, -66.462
1533.6900, -70.517
1533.7000, -73.363
1533.7100,-210.000
1533.7200,-210.000
1533.7300,-210.000
1533.7400, -67.229
1533.7500,-210.000
1533.7600, -65.899
1533.7700,-210.000
1533.7800, -73.427
1533.7900, -68.275
1533.8000,-210.000
1533.8100,-210.000
1533.8200, -68.999
1533.8300,-210.000
1533.8400, -69.268
1533.8500, -81.073
1533.8600,-210.000
1533.8700,-210.000
1533.8800,-210.000
1533.8900,-210.000
1533.9000, -73.472
1533.9100, -77.602
1533.9200, -72.808
1533.9300, -70.052
1533.9400, -68.234
1533.9500, -64.590
1533.9600, -65.626
1533.9700, -69.695
1533.9800, -73.692
1533.9900,-210.000
1534.0000, -69.583
1534.0100, -68.088
1534.0200,-210.000
1534.0300, -69.705
1534.0400,-210.000
1534.0500, -77.845
1534.0600,-210.000
1534.0700,-210.000
1534.0800,-210.000
1534.0900, -77.452
1534.1000, -65.959
1534.1100, -66.110
1534.1200,-210.000
1534.1300,-210.000
1534.1400, -68.944
1534.1500, -89.430
1534.1600,-210.000
1534.1700, -68.925
1534.1800, -70.817
1534.1900, -72.405
1534.2000, -64.962
1534.2100, -66.346
1534.2200, -68.157
1534.2300, -77.108
1534.2400,-210.000
1534.2500, -69.524
1534.2600,-210.000
1534.2700, -67.305
1534.2800,-210.000
1534.2900, -75.565
1534.3000, -72.651
1534.3100, -67.497
1534.3200, -66.551
1534.3300, -65.135
1534.3400, -64.406
1534.3500,-210.000
1534.3600,-210.000
1534.3700, -68.908
1534.3800, -65.101
1534.3900, -66.238
1534.4000, -73.443
1534.4100, -70.081
1534.4200, -75.015
1534.4300, -65.962
