74CSV  	
// AQ6374 OPTICAL SPECTRUM ANALYZER //                  
35
"CTRWL",1550.000000
"SPAN",  50.500000
"START WL",1524.750000
"STOP WL",1575.250000
"WLFREQ", 0
"REFL",-10.0
"LSCL",10.0
"RESLN",0.050
"AVG",   1
"SMPLAUTO",      1
"SMPL",       5051
"SMPLINTVL",0.0100
"HIGH1"
"MEAS"
"LSUNT",1
"NMSKH","OFF"
"RESCOR",0
"SMOOTH",0
"MEASWL",0
"SWPSPD",1
"MODELNAME","AQ6374"
"CHGPT",          0
"RESCAL0_0",      10102
"RESCAL0_1",       -171
"RESCAL0_2",     264153
"RESCAL1_0",      10290
"RESCAL1_1",          0
"RESCAL1_2",          0
"CORESIZE", 0






"[TRACE DATA]"
1524.7500, -82.366
1524.7600,-210.000
1524.7700,-210.000
1524.7800, -65.290
1524.7900, -69.418
1524.8000, -73.891
1524.8100, -65.339
1524.8200, -68.486
1524.8300, -66.584
1524.8400, -97.087
1524.8500,-210.000
1524.8600,-210.000
1524.8700, -69.979
1524.8800,-210.000
1524.8900, -65.192
1524.9000,-210.000
1524.9100,-210.000
1524.9200, -79.535
1524.9300, -67.067
1524.9400, -74.589
1524.9500, -64.323
1524.9600, -65.318
1524.9700,-210.000
1524.9800,-210.000
1524.9900,-210.000
1525.0000,-210.000
1525.0100,-210.000
1525.0200,-210.000
1525.0300, -78.522
1525.0400,-210.000
1525.0500,-210.000
1525.0600, -71.390
1525.0700, -71.950
1525.0800, -72.746
1525.0900, -66.980
1525.1000, -71.864
1525.1100, -73.674
1525.1200,-210.000
1525.1300,-210.000
1525.1400,-210.000
1525.1500, -78.784
1525.1600,-210.000
1525.1700,-210.000
1525.1800,-210.000
1525.1900, -76.854
1525.2000, -71.407
1525.2100, -69.798
1525.2200, -68.716
1525.2300,-210.000
1525.2400, -78.499
1525.2500, -69.633
1525.2600, -75.314
1525.2700, -67.618
1525.2800,-210.000
1525.2900,-210.000
1525.3000, -74.606
1525.3100, -80.556
1525.3200, -93.084
1525.3300, -68.377
1525.3400,-210.000
1525.3500,-210.000
1525.3600,-210.000
1525.3700,-210.000
1525.3800, -71.925
1525.3900, -75.088
1525.4000,-210.000
1525.4100,-210.000
1525.4200, -70.466
1525.4300, -72.502
1525.4400,-210.000
1525.4500,-210.000
1525.4600, -68.181
1525.4700, -68.999
1525.4800, -67.929
1525.4900, -67.102
1525.5000, -69.221
1525.5100, -69.197
1525.5200, -75.738
1525.5300,-210.000
1525.5400,-210.000
1525.5500,-210.000
1525.5600,-210.000
1525.5700, -67.187
1525.5800,-210.000
1525.5900, -72.386
1525.6000, -74.701
1525.6100,-210.000
1525.6200, -65.920
1525.6300, -69.755
1525.6400,-210.000
1525.6500, -78.616
1525.6600, -69.493
1525.6700, -71.122
1525.6800,-210.000
1525.6900,-210.000
1525.7000,-210.000
1525.7100, -68.890
1525.7200,-210.000
1525.7300,-210.000
1525.7400, -67.833
1525.7500, -76.027
1525.7600, -65.060
1525.7700, -74.518
1525.7800, -74.018
1525.7900, -65.765
1525.8000, -69.632
1525.8100, -69.224
1525.8200, -67.160
1525.8300, -67.230
1525.8400,-210.000
1525.8500,-210.000
1525.8600,-210.000
1525.8700, -68.057
1525.8800, -70.733
1525.8900,-210.000
1525.9000,-210.000
1525.9100,-210.000
1525.9200, -68.065
1525.9300,-210.000
1525.9400, -67.257
1525.9500,-210.000
1525.9600, -70.368
1525.9700,-210.000
1525.9800,-210.000
1525.9900, -77.493
1526.0000,-210.000
1526.0100, -69.398
1526.0200, -76.091
1526.0300, -74.995
1526.0400, -74.071
1526.0500, -70.387
1526.0600,-210.000
1526.0700,-210.000
1526.0800,-210.000
1526.0900, -68.435
1526.1000,-210.000
1526.1100, -67.609
1526.1200, -70.870
1526.1300, -71.109
1526.1400, -69.712
1526.1500,-210.000
1526.1600,-210.000
1526.1700, -68.308
1526.1800,-210.000
1526.1900,-210.000
1526.2000,-210.000
1526.2100,-210.000
1526.2200,-210.000
1526.2300,-210.000
1526.2400, -64.510
1526.2500, -66.437
1526.2600,-210.000
1526.2700, -73.586
1526.2800, -68.147
1526.2900, -69.998
1526.3000, -74.441
1526.3100,-210.000
1526.3200,-210.000
1526.3300, -68.756
1526.3400,-210.000
1526.3500,-210.000
1526.3600, -68.484
1526.3700,-210.000
1526.3800, -69.742
1526.3900, -78.255
1526.4000, -65.468
1526.4100,-210.000
1526.4200, -71.266
1526.4300,-210.000
1526.4400,-210.000
1526.4500, -67.421
1526.4600, -65.544
1526.4700, -66.267
1526.4800,-210.000
1526.4900,-210.000
1526.5000, -70.173
1526.5100,-210.000
1526.5200,-210.000
1526.5300,-210.000
1526.5400, -71.953
1526.5500, -71.507
1526.5600, -80.503
1526.5700,-210.000
1526.5800,-210.000
1526.5900,-210.000
1526.6000,-210.000
1526.6100,-210.000
1526.6200,-210.000
1526.6300, -69.508
1526.6400,-210.000
1526.6500,-210.000
1526.6600, -65.207
1526.6700, -71.687
1526.6800, -70.685
1526.6900, -72.867
1526.7000,-210.000
1526.7100,-210.000
1526.7200, -74.759
1526.7300,-210.000
1526.7400, -76.043
1526.7500, -68.878
1526.7600,-210.000
1526.7700, -80.700
1526.7800,-210.000
1526.7900,-210.000
1526.8000,-210.000
1526.8100,-210.000
1526.8200, -68.679
1526.8300, -87.541
1526.8400, -68.503
1526.8500, -66.533
1526.8600, -69.947
1526.8700, -80.085
1526.8800, -90.675
1526.8900,-210.000
1526.9000, -69.907
1526.9100, -68.881
1526.9200,-210.000
1526.9300,-210.000
1526.9400, -72.666
1526.9500, -74.463
1526.9600, -68.282
1526.9700,-210.000
1526.9800,-210.000
1526.9900, -72.770
1527.0000, -72.257
1527.0100,-210.000
1527.0200, -79.128
1527.0300,-210.000
1527.0400, -65.059
1527.0500,-210.000
1527.0600,-210.000
1527.0700,-210.000
1527.0800, -68.959
1527.0900, -68.240
1527.1000, -74.783
1527.1100,-210.000
1527.1200, -68.472
1527.1300, -77.940
1527.1400,-210.000
1527.1500, -80.063
1527.1600, -69.201
1527.1700, -71.634
1527.1800, -68.856
1527.1900,-210.000
1527.2000,-210.000
1527.2100, -73.890
1527.2200,-210.000
1527.2300, -67.215
1527.2400, -68.513
1527.2500, -66.410
1527.2600,-210.000
1527.2700, -70.822
1527.2800,-210.000
1527.2900,-210.000
1527.3000,-210.000
1527.3100,-210.000
1527.3200, -77.876
1527.3300, -70.272
1527.3400,-210.000
1527.3500,-210.000
1527.3600, -89.940
1527.3700,-210.000
1527.3800, -69.371
1527.3900, -70.483
1527.4000, -67.372
1527.4100,-210.000
1527.4200,-210.000
1527.4300,-210.000
1527.4400,-210.000
1527.4500,-210.000
1527.4600,-210.000
1527.4700, -71.701
1527.4800, -70.451
1527.4900, -69.665
1527.5000, -67.212
1527.5100, -68.117
1527.5200,-210.000
1527.5300, -76.948
1527.5400, -70.667
1527.5500,-210.000
1527.5600,-210.000
1527.5700, -85.349
1527.5800, -72.887
1527.5900, -65.478
1527.6000,-210.000
1527.6100,-210.000
1527.6200,-210.000
1527.6300,-210.000
1527.6400, -68.052
1527.6500,-210.000
1527.6600,-210.000
1527.6700, -68.097
1527.6800,-210.000
1527.6900, -78.284
1527.7000, -72.431
1527.7100, -68.299
1527.7200, -69.840
1527.7300, -69.503
1527.7400, -71.563
1527.7500,-210.000
1527.7600, -69.800
1527.7700,-210.000
1527.7800, -89.276
1527.7900,-210.000
1527.8000,-210.000
1527.8100,-210.000
1527.8200,-210.000
1527.8300, -78.246
1527.8400,-210.000
1527.8500, -69.946
1527.8600,-210.000
1527.8700,-210.000
1527.8800,-210.000
1527.8900, -70.210
1527.9000,-210.000
1527.9100,-210.000
1527.9200, -68.829
1527.9300,-210.000
1527.9400, -70.353
1527.9500,-210.000
1527.9600,-210.000
1527.9700, -70.752
1527.9800,-210.000
1527.9900,-210.000
1528.0000, -69.453
1528.0100, -77.734
1528.0200, -66.247
1528.0300, -73.484
1528.0400,-210.000
1528.0500,-210.000
1528.0600,-210.000
1528.0700,-210.000
1528.0800,-210.000
1528.0900, -73.291
1528.1000, -68.073
1528.1100,-210.000
1528.1200, -70.616
1528.1300,-210.000
1528.1400, -66.837
1528.1500,-210.000
1528.1600,-210.000
1528.1700, -66.322
1528.1800, -68.017
1528.1900,-210.000
1528.2000, -69.614
1528.2100,-210.000
1528.2200, -74.731
1528.2300,-210.000
1528.2400, -71.776
1528.2500, -83.717
1528.2600,-210.000
1528.2700,-210.000
1528.2800, -72.834
1528.2900, -70.119
1528.3000, -90.510
1528.3100,-210.000
1528.3200, -70.027
1528.3300,-210.000
1528.3400, -76.969
1528.3500, -71.651
1528.3600, -67.767
1528.3700, -70.643
1528.3800, -70.995
1528.3900, -69.908
1528.4000, -74.589
1528.4100, -67.923
1528.4200, -65.240
1528.4300, -68.287
1528.4400, -66.182
1528.4500,-210.000
1528.4600, -68.946
1528.4700, -70.906
1528.4800, -68.570
1528.4900, -71.598
1528.5000, -67.095
1528.5100, -68.846
1528.5200, -70.596
1528.5300,-210.000
1528.5400, -68.579
1528.5500,-210.000
1528.5600, -73.921
1528.5700, -72.534
1528.5800,-210.000
1528.5900,-210.000
1528.6000, -66.615
1528.6100, -71.263
1528.6200,-210.000
1528.6300, -67.894
1528.6400, -67.847
1528.6500, -67.168
1528.6600, -69.402
1528.6700, -70.353
1528.6800,-210.000
1528.6900,-210.000
1528.7000,-210.000
1528.7100, -75.930
1528.7200, -69.828
1528.7300,-210.000
1528.7400,-210.000
1528.7500,-210.000
1528.7600, -81.306
1528.7700, -68.332
1528.7800,-210.000
1528.7900,-210.000
1528.8000,-210.000
1528.8100,-210.000
1528.8200, -75.653
1528.8300, -78.358
1528.8400,-210.000
1528.8500,-210.000
1528.8600, -69.608
1528.8700,-210.000
1528.8800, -78.525
1528.8900, -67.085
1528.9000,-210.000
1528.9100,-210.000
1528.9200,-210.000
1528.9300, -65.216
1528.9400, -76.036
1528.9500, -71.585
1528.9600, -71.569
1528.9700, -77.367
1528.9800,-210.000
1528.9900, -93.473
1529.0000, -79.033
1529.0100, -66.526
1529.0200, -69.434
1529.0300, -67.919
1529.0400, -76.045
1529.0500,-210.000
1529.0600,-210.000
1529.0700, -71.149
1529.0800,-210.000
1529.0900, -69.647
1529.1000, -68.356
1529.1100, -69.835
1529.1200, -67.825
1529.1300,-210.000
1529.1400, -69.439
1529.1500, -69.639
1529.1600,-210.000
1529.1700,-210.000
1529.1800,-210.000
1529.1900,-210.000
1529.2000,-210.000
1529.2100, -65.520
1529.2200, -68.355
1529.2300,-210.000
1529.2400,-210.000
1529.2500,-210.000
1529.2600,-210.000
1529.2700,-210.000
1529.2800,-210.000
1529.2900,-210.000
1529.3000, -72.937
1529.3100, -67.875
1529.3200, -67.436
1529.3300,-210.000
1529.3400, -66.311
1529.3500,-210.000
1529.3600,-210.000
1529.3700, -67.880
1529.3800,-210.000
1529.3900, -71.228
1529.4000,-210.000
1529.4100, -77.777
1529.4200, -75.076
1529.4300,-210.000
1529.4400, -65.164
1529.4500, -75.217
1529.4600, -69.333
1529.4700, -71.267
1529.4800,-210.000
1529.4900,-210.000
1529.5000,-210.000
1529.5100,-210.000
1529.5200, -70.205
1529.5300,-210.000
1529.5400, -77.865
1529.5500, -69.149
1529.5600,-210.000
1529.5700, -71.252
1529.5800, -73.216
1529.5900,-210.000
1529.6000,-210.000
1529.6100,-210.000
1529.6200, -63.550
1529.6300,-210.000
1529.6400, -69.280
1529.6500, -68.418
1529.6600,-210.000
1529.6700, -66.399
1529.6800, -68.915
1529.6900, -66.299
1529.7000, -63.175
1529.7100,-210.000
1529.7200,-210.000
1529.7300, -84.081
1529.7400, -66.537
1529.7500,-210.000
1529.7600,-210.000
1529.7700, -67.263
1529.7800,-210.000
1529.7900,-210.000
1529.8000, -80.703
1529.8100, -72.701
1529.8200, -69.099
1529.8300, -71.755
1529.8400, -70.500
1529.8500, -72.677
1529.8600,-210.000
1529.8700, -66.373
1529.8800, -76.002
1529.8900, -74.565
1529.9000,-210.000
1529.9100,-210.000
1529.9200,-210.000
1529.9300, -70.528
1529.9400, -65.649
1529.9500, -77.874
1529.9600,-210.000
1529.9700, -74.687
1529.9800,-210.000
1529.9900,-210.000
1530.0000,-210.000
1530.0100, -66.006
1530.0200, -88.980
1530.0300,-210.000
1530.0400, -77.160
1530.0500,-210.000
1530.0600, -66.609
1530.0700,-210.000
1530.0800, -66.356
1530.0900, -69.638
1530.1000,-210.000
1530.1100, -68.825
1530.1200, -69.378
1530.1300, -68.654
1530.1400,-210.000
1530.1500,-210.000
1530.1600, -71.213
1530.1700, -69.834
1530.1800, -71.492
1530.1900, -72.672
1530.2000,-210.000
1530.2100, -69.014
1530.2200, -68.795
1530.2300,-210.000
1530.2400,-210.000
1530.2500,-210.000
1530.2600, -83.884
1530.2700, -72.533
1530.2800, -70.919
1530.2900,-210.000
1530.3000, -72.708
1530.3100, -72.016
1530.3200,-210.000
1530.3300,-210.000
1530.3400, -70.647
1530.3500, -64.827
1530.3600, -67.190
1530.3700, -70.310
1530.3800,-210.000
1530.3900,-210.000
1530.4000, -77.081
1530.4100, -79.287
1530.4200,-210.000
1530.4300, -75.405
1530.4400, -68.991
1530.4500, -71.547
1530.4600, -72.140
1530.4700, -69.531
1530.4800,-210.000
1530.4900, -84.095
1530.5000,-210.000
1530.5100, -77.178
1530.5200,-210.000
1530.5300, -88.912
1530.5400, -76.451
1530.5500, -74.578
1530.5600, -70.572
1530.5700, -75.572
1530.5800,-210.000
1530.5900, -74.907
1530.6000, -65.151
1530.6100, -77.325
1530.6200,-210.000
1530.6300,-210.000
1530.6400,-210.000
1530.6500,-210.000
1530.6600,-210.000
1530.6700, -67.582
1530.6800, -69.025
1530.6900, -66.372
1530.7000, -76.622
1530.7100,-210.000
1530.7200, -71.608
1530.7300,-210.000
1530.7400, -66.127
1530.7500,-210.000
1530.7600,-210.000
1530.7700, -68.257
1530.7800, -74.982
1530.7900, -77.081
1530.8000, -72.546
1530.8100,-210.000
1530.8200,-210.000
1530.8300,-210.000
1530.8400,-210.000
1530.8500,-210.000
1530.8600, -74.433
1530.8700,-210.000
1530.8800, -69.460
1530.8900,-210.000
1530.9000, -68.039
1530.9100,-210.000
1530.9200,-210.000
1530.9300, -74.487
1530.9400,-210.000
1530.9500,-210.000
1530.9600, -65.882
1530.9700, -69.259
1530.9800, -74.206
1530.9900, -68.698
1531.0000, -68.034
1531.0100,-210.000
1531.0200,-210.000
1531.0300, -65.542
1531.0400, -72.492
1531.0500, -74.046
1531.0600, -68.395
1531.0700,-210.000
1531.0800,-210.000
1531.0900, -82.006
1531.1000,-210.000
1531.1100, -72.306
1531.1200, -65.920
1531.1300, -75.805
1531.1400, -65.648
1531.1500,-210.000
1531.1600,-210.000
1531.1700, -69.793
1531.1800,-210.000
1531.1900, -73.062
1531.2000,-210.000
1531.2100, -67.492
1531.2200, -68.713
1531.2300,-210.000
1531.2400,-210.000
1531.2500, -70.880
1531.2600,-210.000
1531.2700, -74.051
1531.2800, -69.706
1531.2900, -68.776
1531.3000,-210.000
1531.3100, -67.686
1531.3200,-210.000
1531.3300,-210.000
1531.3400, -65.887
1531.3500,-210.000
1531.3600, -69.500
1531.3700,-210.000
1531.3800,-210.000
1531.3900,-210.000
1531.4000, -66.681
1531.4100, -68.566
1531.4200, -71.368
1531.4300, -68.536
1531.4400,-210.000
1531.4500, -70.035
1531.4600,-210.000
1531.4700,-210.000
1531.4800, -67.533
1531.4900,-210.000
1531.5000,-210.000
1531.5100, -78.134
1531.5200,-210.000
1531.5300, -71.105
1531.5400, -71.440
1531.5500,-210.000
1531.5600,-210.000
1531.5700,-210.000
1531.5800,-210.000
1531.5900, -79.346
1531.6000, -72.887
1531.6100, -70.753
1531.6200, -65.569
1531.6300, -83.675
1531.6400,-210.000
1531.6500, -64.922
1531.6600, -68.092
1531.6700, -72.993
1531.6800, -69.582
1531.6900, -69.756
1531.7000, -69.700
1531.7100, -77.325
1531.7200,-210.000
1531.7300,-210.000
1531.7400,-210.000
1531.7500,-210.000
1531.7600,-210.000
1531.7700, -68.855
1531.7800, -73.078
1531.7900, -71.602
1531.8000, -71.940
1531.8100,-210.000
1531.8200,-210.000
1531.8300, -70.110
1531.8400, -70.845
1531.8500, -65.603
1531.8600, -68.416
1531.8700, -68.693
1531.8800,-210.000
1531.8900, -77.598
1531.9000,-210.000
1531.9100,-210.000
1531.9200,-210.000
1531.9300, -71.381
1531.9400, -71.189
1531.9500, -78.915
1531.9600, -75.349
1531.9700,-210.000
1531.9800,-210.000
1531.9900,-210.000
1532.0000,-210.000
1532.0100,-210.000
1532.0200, -73.981
1532.0300,-210.000
1532.0400,-210.000
1532.0500,-210.000
1532.0600,-210.000
1532.0700, -66.772
1532.0800, -72.621
1532.0900, -71.152
1532.1000, -68.334
1532.1100,-210.000
1532.1200, -72.576
1532.1300, -72.115
1532.1400, -75.888
1532.1500, -71.833
1532.1600, -76.020
1532.1700, -65.183
1532.1800,-210.000
1532.1900,-210.000
1532.2000, -73.127
1532.2100,-210.000
1532.2200, -68.678
1532.2300, -68.756
1532.2400,-210.000
1532.2500,-210.000
1532.2600,-210.000
1532.2700, -68.879
1532.2800,-210.000
1532.2900,-210.000
1532.3000,-210.000
1532.3100, -69.823
1532.3200,-210.000
1532.3300,-210.000
1532.3400, -80.559
1532.3500, -84.313
1532.3600, -70.485
1532.3700,-210.000
1532.3800,-210.000
1532.3900,-210.000
1532.4000,-210.000
1532.4100, -74.124
1532.4200, -71.230
1532.4300, -75.872
1532.4400,-210.000
1532.4500,-210.000
1532.4600, -73.108
1532.4700, -69.365
1532.4800, -69.933
1532.4900,-210.000
1532.5000, -69.138
1532.5100,-210.000
1532.5200,-210.000
1532.5300,-210.000
1532.5400, -70.186
1532.5500,-210.000
1532.5600, -68.566
1532.5700, -75.980
1532.5800, -70.659
1532.5900,-210.000
1532.6000,-210.000
1532.6100, -69.970
1532.6200, -71.194
1532.6300, -65.141
1532.6400, -79.398
1532.6500,-210.000
1532.6600, -68.321
1532.6700, -72.073
1532.6800,-210.000
1532.6900, -67.357
1532.7000, -65.429
1532.7100, -68.643
1532.7200,-210.000
1532.7300,-210.000
1532.7400,-210.000
1532.7500, -66.187
1532.7600, -68.180
1532.7700, -65.338
1532.7800,-210.000
1532.7900,-210.000
1532.8000,-210.000
1532.8100, -75.165
1532.8200, -66.933
1532.8300, -68.061
1532.8400,-210.000
1532.8500,-210.000
1532.8600,-210.000
1532.8700, -68.892
1532.8800, -65.659
1532.8900, -66.435
1532.9000,-210.000
1532.9100,-210.000
1532.9200,-210.000
1532.9300,-210.000
1532.9400,-210.000
1532.9500, -68.271
1532.9600,-210.000
1532.9700, -66.326
1532.9800,-210.000
1532.9900,-210.000
1533.0000, -68.818
1533.0100, -69.833
1533.0200, -72.207
1533.0300,-210.000
1533.0400,-210.000
1533.0500,-210.000
1533.0600,-210.000
1533.0700, -67.452
1533.0800,-210.000
1533.0900, -80.411
1533.1000, -75.085
1533.1100,-210.000
1533.1200, -69.877
1533.1300, -72.233
1533.1400, -66.899
1533.1500, -71.219
1533.1600, -72.539
1533.1700,-210.000
1533.1800, -65.223
1533.1900, -69.463
1533.2000,-210.000
1533.2100, -79.109
1533.2200, -69.208
1533.2300,-210.000
1533.2400, -70.604
1533.2500,-210.000
1533.2600,-210.000
1533.2700, -78.415
1533.2800,-210.000
1533.2900, -78.148
1533.3000, -73.742
1533.3100, -64.445
1533.3200, -67.659
1533.3300, -68.467
1533.3400, -71.623
1533.3500,-210.000
1533.3600,-210.000
1533.3700, -72.342
1533.3800,-210.000
1533.3900, -69.289
1533.4000,-210.000
1533.4100, -66.023
1533.4200,-210.000
1533.4300, -69.158
1533.4400, -70.043
1533.4500, -74.768
1533.4600, -73.786
1533.4700,-210.000
1533.4800,-210.000
1533.4900,-210.000
1533.5000, -68.396
1533.5100, -67.497
1533.5200, -74.851
1533.5300, -71.826
1533.5400,-210.000
1533.5500, -70.453
1533.5600, -75.589
1533.5700,-210.000
1533.5800, -66.460
1533.5900, -79.603
1533.6000,-210.000
1533.6100,-210.000
1533.6200, -72.985
1533.6300,-210.000
1533.6400,-210.000
1533.6500,-210.000
1533.6600,-210.000
1533.6700, -71.312
1533.6800, -67.853
1533.6900, -69.830
1533.7000,-210.000
1533.7100,-210.000
1533.7200, -68.923
1533.7300,-210.000
1533.7400, -75.119
1533.7500,-210.000
1533.7600,-210.000
1533.7700, -76.247
1533.7800, -71.343
1533.7900, -66.257
1533.8000,-210.000
1533.8100, -72.236
1533.8200,-210.000
1533.8300,-210.000
1533.8400, -74.227
1533.8500,-210.000
1533.8600, -67.491
1533.8700,-210.000
1533.8800, -70.254
1533.8900, -68.672
1533.9000, -69.644
1533.9100, -79.369
1533.9200, -73.415
1533.9300,-210.000
1533.9400, -66.656
1533.9500,-210.000
1533.9600, -73.699
1533.9700,-210.000
1533.9800, -70.734
1533.9900, -69.754
1534.0000,-210.000
1534.0100,-210.000
1534.0200, -65.983
1534.0300, -69.384
1534.0400,-210.000
1534.0500, -69.601
1534.0600, -74.536
1534.0700,-210.000
1534.0800,-210.000
1534.0900,-210.000
1534.1000, -74.936
1534.1100, -78.279
1534.1200, -72.121
1534.1300, -65.622
1534.1400, -67.084
1534.1500, -68.372
1534.1600,-210.000
1534.1700, -67.489
1534.1800,-210.000
1534.1900, -76.279
1534.2000, -66.699
1534.2100, -67.892
1534.2200, -68.585
1534.2300, -72.366
1534.2400, -71.192
1534.2500,-210.000
1534.2600, -71.436
1534.2700, -69.698
1534.2800, -69.673
1534.2900,-210.000
1534.3000,-210.000
1534.3100, -69.906
1534.3200,-210.000
1534.3300,-210.000
1534.3400,-210.000
1534.3500,-210.000
1534.3600,-210.000
1534.3700, -71.375
1534.3800,-210.000
1534.3900, -68.078
1534.4000, -70.874
1534.4100, -70.204
1534.4200, -74.163
1534.4300, -69.003
